Sensor Position (Degrees),Light Intensity (Volts)
0.0,0.0109
0.0,0.01202
0.0,0.00993
0.0,0.01186
0.0,0.01524
0.0,0.01347
0.0,0.00929
0.0,0.008
0.0,0.01637
0.0,0.00784
0.0,0.01299
0.0,0.01492
0.0,0.01315
0.0,0.0175
0.0,0.01444
0.0,0.01396
0.0,0.01058
0.0,0.01701
0.0,0.01009
0.0,0.01508
0.0,0.01476
0.0,0.00929
0.0,0.01557
0.0,0.01283
0.0,0.01315
0.0,0.01251
0.0,0.0146
0.0,0.01122
0.0,0.01396
0.0,0.01444
0.0,0.01042
0.0,0.01283
0.0,0.01138
0.0,0.01042
0.0,0.01058
0.0,0.0117
0.0,0.01412
0.0,0.01685
0.0,0.01621
0.0,0.01202
0.0,0.01315
0.0,0.00929
0.0,0.01138
0.0,0.0138
0.0,0.01621
0.0,0.01412
0.0,0.01444
0.0,0.01025
0.0,0.01025
0.0,0.01524
0.0,0.01605
0.0,0.01476
0.0,0.01428
0.0,0.01267
0.0,0.01299
0.0,0.01524
-0.01015,0.01267
0.0,0.01331
0.0,0.01412
0.0,0.01154
-0.01015,0.01653
0.0,0.01508
0.0,0.01251
-0.01015,0.01508
0.0,0.01701
0.0,0.01202
0.0,0.01412
0.0,0.01347
0.0,0.00768
0.0,0.01283
0.0,0.01476
0.0,0.0138
0.0,0.01396
0.0,0.01042
0.0,0.00881
0.0,0.0109
0.0,0.01219
0.0,0.01573
0.0,0.01122
0.0,0.01235
0.0,0.01202
0.0,0.01589
0.0,0.01653
0.0,0.00913
0.0,0.01138
0.0,0.0175
0.0,0.01074
0.0,0.01331
0.0,0.0109
0.0,0.01138
-0.01015,0.00977
0.0,0.01122
0.0,0.01122
-0.01015,0.01331
-0.01015,0.01122
0.0,0.01895
0.0,0.01299
0.0,0.01251
0.0,0.01331
-0.01015,0.01347
-0.01015,0.01154
0.0,0.01718
-0.01015,0.01685
-0.01015,0.0109
-0.01015,0.01219
-0.01015,0.01492
-0.01015,0.01347
-0.01015,0.01363
-0.01015,0.00977
0.0,0.01557
0.0,0.01492
-0.01015,0.00961
-0.01015,0.01267
0.0,0.0117
0.0,0.01701
-0.01015,0.01154
-0.01015,0.01363
0.0,0.0154
0.0,0.01428
0.0,0.01444
-0.01015,0.01573
0.0,0.00993
0.0,0.01106
-0.01015,0.00993
-0.0203,0.01492
-0.01015,0.01202
0.0,0.01315
0.0,0.01202
-0.01015,0.01363
-0.01015,0.01669
0.0,0.01734
0.01015,0.01106
0.0,0.01138
-0.01015,0.01508
0.01015,0.01154
0.01015,0.01042
0.01015,0.00977
0.01015,0.01589
0.01015,0.01653
0.01015,0.01283
0.01015,0.01653
0.0203,0.01621
0.03046,0.01186
0.03046,0.01283
0.04061,0.01476
0.09137,0.01508
0.14213,0.01605
0.18274,0.00768
0.27411,0.00961
0.34518,0.01235
0.37563,0.01508
0.56853,0.0146
0.67005,0.01186
0.72081,0.01524
0.93401,0.01444
1.1066,0.01267
1.20812,0.01492
1.40102,0.01106
1.53299,0.0117
1.60406,0.01363
1.85787,0.0175
2.08122,0.01476
2.19289,0.01524
2.43655,0.01508
2.57868,0.01106
2.64975,0.01524
2.83249,0.01251
2.95431,0.01363
3.01523,0.0138
3.17766,0.01653
3.26904,0.01621
3.32995,0.00993
3.50254,0.01669
3.61421,0.01251
3.69543,0.01219
3.91878,0.01428
4.06091,0.01396
4.14213,0.01589
4.31472,0.01363
4.43655,0.01492
4.47716,0.01573
4.6599,0.01428
4.79188,0.01283
4.85279,0.01122
5.03553,0.01959
5.15736,0.01878
5.21827,0.0138
5.53299,0.01637
5.72589,0.01267
5.80711,0.01927
6.10152,0.01508
6.32487,0.01557
6.40609,0.01267
6.72081,0.01557
6.88325,0.01524
6.97462,0.0146
7.22843,0.01605
7.39086,0.01524
7.48223,0.01589
7.71574,0.01363
7.86802,0.01315
7.95939,0.01122
8.20305,0.01846
8.38579,0.01605
8.47716,0.01219
8.79188,0.01814
9.02538,0.01878
9.1269,0.01895
9.43147,0.01878
9.61421,0.01959
9.73604,0.01878
10.04061,0.01621
10.26396,0.0154
10.38579,0.01605
10.63959,0.01685
10.80203,0.0212
10.8731,0.01943
11.15736,0.01975
11.29949,0.01605
11.32995,0.01959
11.48223,0.01766
11.59391,0.01927
11.63452,0.01975
11.75635,0.02361
11.83756,0.01862
11.88832,0.02023
12.09137,0.022
12.2132,0.0241
12.26396,0.02039
12.52792,0.02361
12.67005,0.02426
12.73096,0.02361
12.90355,0.02249
13.00508,0.02651
13.04569,0.02458
13.22843,0.02715
13.3401,0.02056
13.40102,0.02796
13.63452,0.02619
13.73604,0.02973
13.81726,0.02651
14.0,0.02699
14.09137,0.02844
14.13198,0.03037
14.24365,0.03231
14.31472,0.03392
14.40609,0.03279
14.61929,0.02909
14.72081,0.03375
14.77157,0.03424
14.92386,0.03665
15.01523,0.03681
15.1269,0.03987
15.37056,0.041
15.52284,0.04502
15.64467,0.04599
15.93909,0.05114
16.08122,0.0542
16.14213,0.05564
16.40609,0.06144
16.55838,0.06434
16.62944,0.069
16.92386,0.08623
17.06599,0.09331
17.19797,0.10264
17.49239,0.12904
17.67513,0.14288
17.86802,0.17025
18.22335,0.22352
18.40609,0.2636
18.55838,0.30803
18.88325,0.43374
19.06599,0.51647
19.23858,0.61111
19.60406,0.8746
19.7868,1.04296
19.96954,1.23499
20.17259,1.51151
20.27411,1.67199
20.36548,1.8175
20.56853,2.10352
20.67005,2.22875
20.77157,2.32999
20.96447,2.48419
21.07614,2.53425
21.21827,2.57433
21.41117,2.57465
21.5533,2.54101
21.61421,2.51252
21.77665,2.39502
21.89848,2.28766
21.96954,2.2265
22.16244,2.02449
22.30457,1.87399
22.35533,1.7903
22.55838,1.56511
22.6802,1.40432
22.75127,1.32738
22.91371,1.10059
23.04569,0.96232
23.08629,0.90245
23.27919,0.73585
23.41117,0.62528
23.47208,0.58874
23.68528,0.4487
23.81726,0.37627
23.89848,0.34183
24.12183,0.26666
24.27411,0.21515
24.34518,0.20131
24.58883,0.15367
24.75127,0.12985
24.82234,0.12083
25.02538,0.09621
25.15736,0.08526
25.19797,0.07464
25.37056,0.06418
25.51269,0.05468
25.5533,0.0542
25.69543,0.04953
25.7868,0.04566
25.80711,0.04245
25.91878,0.04132
25.9797,0.04148
26.01015,0.03794
26.12183,0.03746
26.22335,0.03617
26.26396,0.02989
26.40609,0.03327
26.52792,0.02699
26.59898,0.03472
26.80203,0.02973
26.96447,0.03359
27.03553,0.03166
27.27919,0.03375
27.45178,0.03134
27.51269,0.03343
27.7665,0.03102
27.90863,0.02876
27.96954,0.02989
28.20305,0.02732
28.38579,0.02844
28.45685,0.02925
28.71066,0.03408
28.8934,0.03005
28.98477,0.02909
29.27919,0.0286
29.48223,0.03424
29.5736,0.02619
29.88832,0.03102
30.13198,0.02571
30.25381,0.02715
30.59898,0.02796
30.83249,0.02764
30.94416,0.02844
31.28934,0.0307
31.49239,0.0278
31.5736,0.02667
31.84772,0.02764
31.9797,0.02925
32.07107,0.02619
32.27411,0.03005
32.38579,0.02973
32.45685,0.02442
32.64975,0.02909
32.80203,0.0307
32.8731,0.02538
33.1269,0.02587
33.28934,0.02587
33.39086,0.02909
33.66497,0.03053
33.85787,0.03375
33.95939,0.02876
34.22335,0.02812
34.4264,0.02925
34.51777,0.02603
34.81218,0.02619
35.02538,0.02925
35.13706,0.02828
35.38071,0.03086
35.54315,0.02748
35.64467,0.03037
35.89848,0.02973
36.05076,0.03327
36.13198,0.02925
36.35533,0.03037
36.50761,0.03198
36.59898,0.03182
36.86294,0.03375
37.04569,0.03214
37.1269,0.02844
37.40102,0.02989
37.60406,0.02538
37.70558,0.02587
37.98985,0.02828
38.17259,0.03424
38.26396,0.03037
38.53807,0.03633
38.70051,0.03263
38.78173,0.02876
38.98477,0.02876
39.11675,0.03569
39.18782,0.0307
39.45178,0.03536
39.62437,0.03327
39.72589,0.0286
39.93909,0.03005
40.09137,0.03552
40.17259,0.0307
40.39594,0.03472
40.53807,0.0315
40.60914,0.03086
40.81218,0.03214
40.93401,0.03053
40.99492,0.03552
41.17766,0.03311
41.28934,0.03424
41.35025,0.03617
41.51269,0.03488
41.64467,0.03392
41.70558,0.02973
41.87817,0.03295
42.01015,0.03311
42.06091,0.03375
42.24365,0.02876
42.39594,0.03295
42.46701,0.03182
42.63959,0.03343
42.78173,0.03408
42.85279,0.03343
43.03553,0.03166
43.15736,0.03633
43.21827,0.03231
43.42132,0.03102
43.54315,0.03392
43.58376,0.03343
43.72589,0.03198
43.82741,0.03086
43.85787,0.03021
44.0,0.03102
44.10152,0.03392
44.15228,0.03279
44.30457,0.03488
44.40609,0.0344
44.45685,0.03327
44.60914,0.03504
44.73096,0.0344
44.77157,0.0344
44.92386,0.03295
45.00508,0.03633
45.04569,0.03504
45.20812,0.02893
45.3198,0.03472
45.36041,0.03295
45.52284,0.03327
45.62437,0.03488
45.67513,0.03569
45.84772,0.03585
45.95939,0.03762
46.0,0.03375
46.11168,0.0352
46.18274,0.03585
46.2132,0.0352
46.29442,0.03408
46.33503,0.03488
46.34518,0.03762
46.40609,0.03182
46.45685,0.03665
46.48731,0.03601
46.59898,0.03488
46.6802,0.03086
46.72081,0.03585
46.8731,0.03681
46.98477,0.03488
47.04569,0.03923
47.23858,0.0286
47.36041,0.03552
47.41117,0.03456
47.58376,0.03665
47.69543,0.03456
47.73604,0.03472
47.83756,0.03826
47.88832,0.03907
47.90863,0.03424
47.9797,0.03552
48.05076,0.03649
48.08122,0.03585
48.22335,0.03311
48.33503,0.03408
48.39594,0.03424
48.56853,0.03794
48.70051,0.03778
48.77157,0.03504
48.94416,0.03504
49.06599,0.03633
49.13706,0.03842
49.3401,0.03617
49.48223,0.0352
49.54315,0.03569
49.71574,0.03923
49.83756,0.04084
49.89848,0.03907
50.04061,0.03472
50.12183,0.04019
50.15228,0.04261
50.28426,0.03746
50.35533,0.0381
50.39594,0.03681
50.52792,0.03408
50.64975,0.03633
50.71066,0.03633
50.8731,0.03762
50.97462,0.03794
51.03553,0.04035
51.22843,0.03971
51.36041,0.03826
51.43147,0.03874
51.63452,0.0373
51.7665,0.03907
51.80711,0.03263
51.94924,0.03842
52.04061,0.03343
52.07107,0.03713
52.22335,0.04228
52.30457,0.04068
52.35533,0.03874
52.51777,0.03778
52.63959,0.03633
52.71066,0.04196
52.8934,0.03649
53.05584,0.04164
53.14721,0.0389
53.41117,0.04261
53.59391,0.03488
53.66497,0.03907
53.89848,0.03633
54.06091,0.04035
54.14213,0.04019
54.38579,0.03713
54.51777,0.03794
54.58883,0.0389
54.77157,0.04196
54.91371,0.04051
54.98477,0.03955
55.16751,0.03697
55.3198,0.03923
55.36041,0.03456
55.54315,0.03971
55.65482,0.0389
55.70558,0.03955
55.82741,0.03488
55.93909,0.03858
56.0,0.03762
56.20305,0.03665
56.36548,0.03874
56.4467,0.03488
56.67005,0.04293
56.83249,0.03939
56.92386,0.04051
57.17766,0.03697
57.29949,0.0381
57.37056,0.04245
57.53299,0.03826
57.64467,0.03874
57.70558,0.03649
57.88832,0.03649
58.0,0.03746
58.08122,0.04084
58.26396,0.04212
58.41624,0.04003
58.48731,0.04245
58.75127,0.04003
58.97462,0.0418
59.08629,0.04019
59.47208,0.03488
59.7868,0.04277
59.92893,0.03971
60.31472,0.03762
60.56853,0.0389
60.71066,0.04051
61.15736,0.04019
61.42132,0.03762
61.59391,0.03601
62.06091,0.04068
62.34518,0.03488
62.47716,0.03842
62.80203,0.04261
63.00508,0.03762
63.09645,0.04035
63.36041,0.03987
63.49239,0.04373
63.53299,0.03939
63.70558,0.03746
63.84772,0.04261
63.91878,0.03504
64.15228,0.03665
64.30457,0.03907
64.38579,0.03585
64.6802,0.04084
64.91371,0.03874
65.03553,0.03874
65.36041,0.04293
65.50254,0.04309
65.61421,0.03713
65.96954,0.03681
66.22335,0.04035
66.35533,0.03713
66.69036,0.03955
66.93401,0.04148
67.07614,0.03858
67.42132,0.03858
67.66497,0.04309
67.77665,0.04003
68.10152,0.04212
68.27411,0.04068
68.36548,0.0373
68.58883,0.03617
68.71066,0.04164
68.76142,0.03424
68.92386,0.03874
69.03553,0.04003
69.09645,0.04035
69.30964,0.03874
69.49239,0.04277
69.59391,0.04228
69.92893,0.04084
70.16244,0.03697
70.31472,0.04228
70.6802,0.04389
70.95431,0.0373
71.09645,0.041
71.46193,0.04019
71.69543,0.03939
71.79695,0.03633
72.04061,0.03375
72.19289,0.03826
72.24365,0.03955
72.41624,0.03665
72.51777,0.04148
72.56853,0.03971
72.73096,0.03778
72.84264,0.04245
72.92386,0.03971
73.14721,0.0381
73.3401,0.03971
73.45178,0.04293
73.75635,0.04084
74.01015,0.04035
74.16244,0.03923
74.53807,0.04309
74.80203,0.04422
74.96447,0.04406
75.30964,0.0418
75.53299,0.04309
75.65482,0.04019
75.92893,0.03955
76.11168,0.04293
76.2132,0.04422
76.50761,0.0455
76.73096,0.0484
76.84264,0.0579
77.15736,0.10329
77.3401,0.15834
77.46193,0.18747
77.71574,0.26988
77.84772,0.28952
77.90863,0.28742
78.0203,0.28855
78.09137,0.2834
78.12183,0.28549
78.20305,0.28034
78.26396,0.28018
78.29442,0.28147
78.39594,0.28372
78.49746,0.28694
78.55838,0.29032
78.74112,0.28549
78.88325,0.27262
78.97462,0.26199
79.20812,0.23704
79.3401,0.21741
79.42132,0.19825
79.61421,0.15785
79.73604,0.12824
79.80711,0.12148
79.9797,0.10232
80.08122,0.08687
80.12183,0.08462
80.24365,0.0756
80.31472,0.0711
80.35533,0.06627
80.46701,0.06208
80.54822,0.05902
80.59898,0.05548
80.74112,0.05693
80.84264,0.05484
80.90355,0.05323
81.1066,0.0542
81.24873,0.05243
81.32995,0.05098
81.56345,0.0476
81.72589,0.05194
81.81726,0.05082
82.04061,0.04985
82.17259,0.05194
82.2335,0.04905
82.43655,0.04953
82.55838,0.04663
82.61929,0.05049
82.79188,0.05452
82.92386,0.04937
82.96447,0.04969
83.1066,0.05017
83.17766,0.05275
83.21827,0.05178
83.30964,0.05307
83.37056,0.04534
83.41117,0.05226
83.51269,0.0542
83.61421,0.05017
83.66497,0.05243
83.79695,0.04905
83.91878,0.05194
83.96954,0.04937
84.15228,0.05082
84.27411,0.05452
84.33503,0.0521
84.51777,0.05065
84.62944,0.05484
84.71066,0.04969
84.91371,0.04727
85.06599,0.05065
85.15736,0.04744
85.40102,0.04776
85.56345,0.05114
85.65482,0.04663
85.86802,0.05017
86.0,0.05355
86.05076,0.04937
86.18274,0.04534
86.27411,0.05049
86.30457,0.04727
86.40609,0.0513
86.43655,0.04905
86.46701,0.0484
86.51777,0.04985
86.56853,0.0476
86.59898,0.04663
86.72081,0.04727
86.78173,0.04856
86.83249,0.04872
86.95431,0.04744
87.02538,0.0521
87.06599,0.05065
87.16751,0.05001
87.24873,0.04856
87.3198,0.04711
87.54315,0.0447
87.72589,0.04953
87.83756,0.0513
88.16244,0.04438
88.38579,0.05178
88.50761,0.04744
88.84264,0.05291
89.05584,0.05291
89.16751,0.05307
89.44162,0.05001
89.60406,0.04776
89.68528,0.04599
89.91878,0.04744
90.05076,0.0513
