Sensor Position (Degrees),Light Intensity (Volts)
0.0,0.03939
0.0,0.03842
0.0,0.04148
0.0,0.0476
0.0,0.04309
0.0,0.04341
0.0,0.0447
0.0,0.04406
0.0,0.04261
0.0,0.04277
0.0,0.04212
0.0,0.04212
0.0,0.0447
0.0,0.04695
0.0,0.04228
0.0,0.04068
0.0,0.04438
0.0,0.04293
0.0,0.04309
0.0,0.04422
0.0,0.04389
0.0,0.04357
0.0,0.04534
0.0,0.04389
0.0,0.04486
0.0,0.04647
0.0,0.04454
0.0,0.04663
0.0,0.04518
0.0,0.04615
0.0,0.04744
0.0,0.04583
0.0,0.04518
0.0,0.04068
0.0,0.03874
0.0,0.03987
0.0,0.04228
0.0,0.04293
0.0,0.04035
0.0,0.03939
0.0,0.04068
0.0,0.04212
0.0,0.04341
0.0,0.03955
0.0,0.0447
0.0,0.04792
0.0,0.04325
0.0,0.03939
0.0,0.04116
0.0,0.04212
0.0,0.04711
0.0,0.04293
0.0,0.04406
0.0,0.04583
0.0,0.041
0.0,0.04196
0.0,0.04293
0.0,0.03971
0.0,0.0381
0.0,0.04406
0.0,0.04325
0.0,0.04261
0.0,0.04212
0.0,0.04631
0.0,0.04245
0.0,0.03907
0.0,0.04309
0.0,0.04035
0.0,0.04357
0.0,0.04164
0.0,0.03939
0.0,0.04373
0.0,0.04663
0.0,0.0389
0.0,0.04212
0.0,0.04035
0.0,0.04228
0.0,0.04502
0.0,0.04212
0.0,0.04293
0.0,0.04373
0.0,0.04051
0.0,0.0455
0.0,0.0447
0.0,0.04084
0.0,0.04228
0.0,0.03504
0.0,0.04502
0.0,0.04422
0.0,0.04196
0.0,0.04711
0.0,0.04518
0.0,0.04325
0.0,0.04647
0.0,0.04486
0.0,0.04679
0.0,0.04824
0.0,0.04599
0.0,0.0455
0.0,0.04228
0.0,0.04422
0.0,0.04293
0.0,0.04583
0.0,0.03907
0.0,0.04711
0.0,0.04921
0.0,0.04132
0.0,0.04599
0.0,0.04261
0.0,0.04245
0.0,0.04228
0.0,0.04454
0.0,0.04196
0.0,0.04309
0.0,0.04406
0.0,0.03939
0.0,0.0455
0.0,0.04486
0.0,0.04422
0.0,0.04309
0.0,0.0455
0.0,0.04744
0.0,0.04727
0.0,0.04888
0.0,0.04663
0.0,0.04647
0.0,0.04357
0.0,0.04647
0.0,0.04261
0.0,0.0455
0.0,0.04566
0.0,0.04534
0.0,0.04454
0.0,0.0455
0.0,0.04261
0.0,0.04454
0.0,0.04486
0.0,0.04132
0.0,0.04438
0.0,0.04277
0.0,0.04389
0.0,0.04277
0.0,0.04373
0.0,0.04744
0.0,0.04389
0.0,0.04132
0.0,0.04325
0.0,0.04583
0.0,0.04518
0.0,0.04389
0.01015,0.04679
0.01015,0.04566
0.01015,0.04277
0.01015,0.04454
0.01015,0.04245
0.01015,0.03713
0.01015,0.03842
0.01015,0.03923
0.01015,0.03697
0.01015,0.04293
0.03046,0.04277
0.05076,0.03697
0.08122,0.04309
0.10152,0.04212
0.17259,0.04325
0.24365,0.04003
0.27411,0.04212
0.4264,0.03794
0.53807,0.04051
0.58883,0.04164
0.71066,0.04615
0.79188,0.04245
0.84264,0.04261
0.99492,0.04261
1.04569,0.04148
1.1066,0.03826
1.25888,0.04454
1.37056,0.04164
1.42132,0.04019
1.59391,0.04357
1.72589,0.04373
1.7868,0.041
2.0,0.04583
2.16244,0.04035
2.24365,0.04373
2.43655,0.04132
2.59898,0.04438
2.67005,0.04261
2.92386,0.04035
3.1066,0.04373
3.18782,0.04776
3.47208,0.04389
3.64467,0.04357
3.74619,0.0447
4.05076,0.0484
4.24365,0.04357
4.35533,0.0389
4.58883,0.04744
4.76142,0.04534
4.83249,0.04486
5.11675,0.04502
5.29949,0.041
5.39086,0.04454
5.65482,0.04325
5.84772,0.04325
5.92893,0.04148
6.19289,0.04212
6.39594,0.04679
6.51777,0.04454
6.8731,0.04647
7.08629,0.04196
7.18782,0.04969
7.53299,0.0476
7.77665,0.04261
7.9797,0.04566
8.32487,0.04711
8.53807,0.05001
8.61929,0.05065
8.90355,0.0455
9.04569,0.05146
9.17766,0.05049
9.47208,0.04985
9.62437,0.04921
9.70558,0.04486
9.96954,0.04727
10.13198,0.04679
10.2132,0.04647
10.37563,0.05065
10.52792,0.04792
10.57868,0.04711
10.77157,0.05001
10.90355,0.05098
10.95431,0.04647
11.1269,0.04631
11.24873,0.04711
11.30964,0.05049
11.46193,0.05146
11.5533,0.05323
11.59391,0.04744
11.7868,0.05355
11.88832,0.04776
11.93909,0.04921
12.12183,0.05291
12.24365,0.05226
12.29442,0.05629
12.45685,0.04937
12.57868,0.05194
12.69036,0.05532
12.88325,0.05259
13.00508,0.04921
13.06599,0.05436
13.23858,0.05581
13.36041,0.05001
13.41117,0.05226
13.58376,0.05935
13.68528,0.05146
13.72589,0.05371
13.88832,0.05661
13.98985,0.05082
14.05076,0.06047
14.18274,0.05581
14.27411,0.06047
14.37563,0.05951
14.49746,0.05935
14.59898,0.05629
14.6599,0.06112
14.84264,0.05951
14.96447,0.05741
15.08629,0.05581
15.23858,0.06353
15.36041,0.06723
15.42132,0.06289
15.69543,0.06772
15.84772,0.07142
15.92893,0.07287
16.2132,0.07657
16.35533,0.07753
16.47716,0.08365
16.75127,0.08703
16.88325,0.09283
16.99492,0.09765
17.22843,0.10409
17.32995,0.11134
17.41117,0.12534
17.62437,0.13661
17.72589,0.14755
17.81726,0.1519
17.95939,0.18055
18.0203,0.18522
18.06091,0.19697
18.18274,0.21741
18.27411,0.229
18.35533,0.24541
18.58883,0.28887
18.71066,0.31028
18.83249,0.34279
19.1269,0.43856
19.26904,0.50601
19.42132,0.58166
19.66497,0.74777
19.79695,0.85561
19.93909,0.96329
20.14213,1.17688
20.24365,1.28665
20.33503,1.38114
20.49746,1.57316
20.60914,1.6699
20.69036,1.76309
20.86294,1.91472
20.95431,1.97685
21.02538,2.02626
21.18782,2.10304
21.24873,2.11447
21.30964,2.12252
21.40102,2.11897
21.44162,2.11608
21.44162,2.11318
21.46193,2.11028
21.49239,2.10433
21.53299,2.09065
21.5533,2.08195
21.63452,2.05604
21.71574,2.03576
21.7665,2.02015
21.88832,1.93886
22.01015,1.86949
22.07107,1.82635
22.24365,1.67585
22.37563,1.57831
22.4264,1.51377
22.60914,1.34701
22.73096,1.22404
22.77157,1.16336
22.94416,0.99612
23.06599,0.88973
23.1269,0.83661
23.28934,0.69497
23.39086,0.60741
23.46193,0.56701
23.61421,0.45965
23.71574,0.40669
23.75635,0.37144
23.89848,0.30738
24.0,0.26875
24.04061,0.25169
24.20305,0.20775
24.32487,0.1865
24.38579,0.17298
24.55838,0.13693
24.67005,0.12727
24.73096,0.12502
24.92386,0.10361
25.05584,0.10248
25.1269,0.08961
25.3198,0.0888
25.49239,0.07866
25.5533,0.0785
25.7665,0.07689
25.88832,0.07158
25.94924,0.07351
26.12183,0.06804
26.22335,0.06756
26.26396,0.06418
26.38579,0.06546
26.47716,0.06804
26.51777,0.06595
26.62944,0.06289
26.71066,0.06144
26.75127,0.06289
26.86294,0.06305
26.94416,0.06546
26.99492,0.06498
27.13706,0.06401
27.23858,0.06659
27.29949,0.05983
27.47208,0.05983
27.62437,0.0616
27.70558,0.06305
28.0203,0.06192
28.24365,0.06418
28.34518,0.05886
28.70051,0.06321
28.91371,0.06498
29.04569,0.05935
29.35025,0.05999
29.54315,0.05709
29.63452,0.0616
29.93909,0.0624
30.11168,0.06144
30.20305,0.05999
30.45685,0.06321
30.61929,0.05902
30.70051,0.05178
30.94416,0.05951
31.07614,0.05999
31.17766,0.05919
31.40102,0.06273
31.54315,0.0608
31.62437,0.06385
31.82741,0.05951
31.9797,0.06401
32.05076,0.05902
32.2335,0.05983
32.35533,0.06337
32.4264,0.05999
32.60914,0.05548
32.72081,0.055
32.79188,0.06144
32.94416,0.06337
33.06599,0.06112
33.11675,0.06031
33.28934,0.06128
33.43147,0.0608
33.49239,0.05613
33.68528,0.0624
33.81726,0.06128
33.89848,0.05854
34.14213,0.06096
34.30457,0.06128
34.38579,0.06031
34.62944,0.05935
34.79188,0.06176
34.8731,0.05902
35.1066,0.06289
35.27919,0.06192
35.39086,0.06112
35.65482,0.05838
35.80711,0.05758
35.89848,0.06063
36.13198,0.05758
36.26396,0.06128
36.35533,0.05902
36.55838,0.05468
36.69036,0.0587
36.76142,0.0579
36.94416,0.06192
37.07614,0.06192
37.13706,0.06112
37.30964,0.06208
37.41117,0.06675
37.46193,0.06112
37.56345,0.06224
37.58376,0.06192
37.59391,0.06434
37.60406,0.06353
37.65482,0.06257
37.69543,0.06353
37.81726,0.06562
37.91878,0.05774
37.98985,0.06096
38.17259,0.0624
38.27411,0.0608
38.32487,0.0587
38.4467,0.05741
38.51777,0.06305
38.54822,0.06112
38.59898,0.06337
38.61929,0.06546
38.63959,0.0624
38.71066,0.06144
38.77157,0.06273
38.80203,0.06128
38.92386,0.06498
39.00508,0.06031
39.06599,0.06562
39.25888,0.0616
39.37056,0.0624
39.44162,0.06289
39.61421,0.05854
39.72589,0.06466
39.79695,0.05983
39.91878,0.06047
39.98985,0.06305
40.0203,0.06224
40.09137,0.06434
40.14213,0.06144
40.17259,0.0616
40.29442,0.06578
40.39594,0.06192
40.4467,0.06434
40.62944,0.06192
40.75127,0.05919
40.81218,0.05935
41.00508,0.05902
41.1269,0.05951
41.18782,0.06273
41.37056,0.06659
41.47208,0.0616
41.53299,0.06337
41.68528,0.06273
41.77665,0.06192
41.83756,0.06224
41.98985,0.06321
42.12183,0.06611
42.18274,0.0579
42.38579,0.06144
42.53807,0.06337
42.59898,0.05677
42.77157,0.06385
42.88325,0.06659
42.94416,0.06192
43.11675,0.06015
43.23858,0.0579
43.28934,0.06337
43.45178,0.06128
43.54315,0.06337
43.59391,0.06192
43.72589,0.0624
43.83756,0.06514
43.88832,0.06321
44.05076,0.06756
44.15228,0.06482
44.19289,0.06031
44.35533,0.06659
44.4467,0.06482
44.50761,0.06305
44.6599,0.05935
44.76142,0.06257
44.81218,0.06321
44.96447,0.0624
45.08629,0.0608
45.13706,0.06611
45.3401,0.06273
45.50254,0.06353
45.5736,0.06595
45.7665,0.06096
45.90863,0.06611
45.9797,0.0682
46.18274,0.0645
46.30457,0.06466
46.35533,0.06466
46.53807,0.0653
46.62944,0.06144
46.6802,0.06418
46.82234,0.06385
46.93401,0.06788
46.98477,0.06401
47.14721,0.0653
47.25888,0.06128
47.30964,0.06675
47.49239,0.0616
47.63452,0.06369
47.69543,0.06144
47.86802,0.06482
47.96954,0.06788
48.03046,0.06224
48.19289,0.06965
48.31472,0.06546
48.36548,0.06289
48.49746,0.06289
48.58883,0.06691
48.62944,0.06289
48.77157,0.06031
48.83249,0.06691
48.85279,0.0653
48.91371,0.06595
48.96447,0.06401
48.98477,0.06144
49.05584,0.06546
49.1066,0.06852
49.1269,0.06627
49.20812,0.06514
49.26904,0.06707
49.29949,0.06981
49.40102,0.06756
49.48223,0.06353
49.51269,0.06482
49.63452,0.06385
49.71574,0.06836
49.75635,0.06643
49.87817,0.06997
49.95939,0.06595
50.0,0.06916
50.11168,0.0653
50.16244,0.06257
50.19289,0.06739
50.29442,0.06691
50.37563,0.06675
50.40609,0.06788
50.51777,0.06981
50.58883,0.07094
50.62944,0.06321
50.75127,0.06852
50.82234,0.06739
50.85279,0.06562
50.96447,0.069
51.02538,0.06788
51.05584,0.0682
51.19797,0.06546
51.28934,0.06627
51.3401,0.06723
51.46193,0.06659
51.56345,0.07142
51.60406,0.06643
51.7665,0.06788
51.83756,0.06385
51.88832,0.0719
52.0,0.06804
52.07107,0.06772
52.12183,0.06756
52.2335,0.06868
52.30457,0.06804
52.33503,0.06595
52.4264,0.06756
52.49746,0.06321
52.52792,0.07077
52.60914,0.06514
52.69036,0.06466
52.72081,0.06369
52.85279,0.07158
52.95431,0.06257
52.98477,0.06788
53.1269,0.06739
53.21827,0.0653
53.26904,0.07174
53.40102,0.0711
53.48223,0.06611
53.51269,0.06498
53.61421,0.06611
53.68528,0.07045
53.72589,0.06578
53.84772,0.06756
53.92893,0.06723
53.98985,0.06627
54.12183,0.06739
54.24365,0.06691
54.30457,0.06369
54.51777,0.06627
54.6599,0.06208
54.75127,0.06852
54.97462,0.06546
55.09645,0.06868
55.17766,0.06675
55.36041,0.06514
55.48223,0.06273
55.54315,0.06578
55.72589,0.06868
55.84772,0.06691
55.91878,0.06514
56.10152,0.06691
56.2335,0.06723
56.30457,0.06756
56.48731,0.06192
56.60914,0.06482
56.6802,0.06418
56.83249,0.07013
56.94416,0.06788
56.99492,0.06611
57.14721,0.06353
57.26904,0.06675
57.35025,0.07174
57.56345,0.06659
57.70558,0.06675
57.77665,0.06772
57.93909,0.0624
58.05076,0.0682
58.10152,0.06595
58.28426,0.06965
58.37563,0.06546
58.41624,0.06723
58.54822,0.06096
58.63959,0.06273
58.6802,0.06643
58.81218,0.06723
58.91371,0.06691
58.95431,0.06627
59.1269,0.06836
59.22843,0.06498
59.27919,0.06643
59.43147,0.06852
59.53299,0.06949
59.58376,0.07061
59.77665,0.06466
59.89848,0.06514
59.96954,0.06514
60.16244,0.06772
60.28426,0.06723
60.34518,0.06418
60.55838,0.06482
60.67005,0.06707
60.73096,0.06611
60.8934,0.06756
61.01523,0.0616
61.07614,0.0653
61.24873,0.06643
61.36041,0.06884
61.41117,0.06723
61.58376,0.06208
61.69543,0.06514
61.77665,0.0645
61.94924,0.06691
62.07107,0.06707
62.12183,0.07013
62.30457,0.069
62.41624,0.0653
62.48731,0.06546
62.6802,0.06546
62.79188,0.06595
62.86294,0.06691
63.07614,0.06401
63.20812,0.06852
63.29949,0.06514
63.52284,0.0719
63.67513,0.06418
63.74619,0.06434
63.93909,0.06611
64.09137,0.06659
64.14213,0.06997
64.34518,0.06466
64.46701,0.06385
64.54822,0.06627
64.79188,0.06482
64.94416,0.06273
65.03553,0.06546
65.28934,0.06434
65.45178,0.06482
65.53299,0.06289
65.74619,0.06675
65.88832,0.06305
65.95939,0.06659
66.14213,0.06707
66.2335,0.06176
66.26396,0.06643
66.37563,0.06933
66.45685,0.06176
66.49746,0.07029
66.62944,0.06884
66.69036,0.06418
66.73096,0.06578
66.8731,0.06675
66.99492,0.06707
67.04569,0.06739
67.23858,0.0682
67.36041,0.06096
67.44162,0.06804
67.66497,0.06498
67.85787,0.06562
67.95939,0.06434
68.24365,0.06466
68.40609,0.06836
68.47716,0.06401
68.69036,0.06385
68.81218,0.06546
68.86294,0.06804
69.01523,0.06015
69.1066,0.06949
69.16751,0.06514
69.3401,0.06305
69.46193,0.069
69.53299,0.06224
69.73604,0.06112
69.85787,0.06675
69.92893,0.06482
70.15228,0.06466
70.28426,0.06434
70.35533,0.06643
70.52792,0.06643
70.63959,0.0682
70.69036,0.06562
70.88325,0.06723
71.01523,0.06997
71.08629,0.06884
71.3198,0.06852
71.47208,0.06611
71.56345,0.06659
71.79695,0.06546
71.96954,0.06224
72.05076,0.06321
72.30457,0.06353
72.45685,0.06385
72.54822,0.06514
72.73096,0.06369
72.81218,0.06611
72.86294,0.06498
72.94416,0.06385
72.98477,0.06337
73.00508,0.0645
73.1066,0.06224
73.18782,0.06546
73.24873,0.06434
73.40102,0.06562
73.52284,0.06096
73.59391,0.06627
73.74619,0.06514
73.82741,0.0624
73.88832,0.06466
74.03046,0.06257
74.14213,0.06981
74.20305,0.06949
74.35533,0.06916
74.45685,0.06707
74.50761,0.06611
74.67005,0.06611
74.77157,0.06305
74.82234,0.06707
74.98477,0.06611
75.08629,0.06369
75.15736,0.06514
75.32995,0.0653
75.44162,0.06691
75.50254,0.06401
75.63452,0.06498
75.72589,0.06466
75.77665,0.06595
75.88832,0.06756
75.96954,0.06965
76.0203,0.06916
76.17259,0.06772
76.29442,0.06772
76.37563,0.06836
76.6599,0.06611
76.84264,0.069
76.96447,0.07061
77.16751,0.07753
77.28934,0.09782
77.3401,0.11423
77.56345,0.1659
77.70558,0.20212
77.79695,0.21902
78.03046,0.27262
78.16244,0.28211
78.22335,0.28533
78.4264,0.26956
78.54822,0.26618
78.60914,0.26924
78.74112,0.27229
78.81218,0.27149
78.85279,0.27326
78.97462,0.27036
79.04569,0.26666
79.07614,0.26409
79.15736,0.25829
79.20812,0.25475
79.23858,0.24815
79.29949,0.24316
79.35025,0.23592
79.38071,0.23415
79.50254,0.21902
79.59391,0.20276
79.63452,0.20115
79.7868,0.16687
79.88832,0.15479
79.92893,0.13564
80.11168,0.11729
80.2132,0.10973
80.27411,0.10908
80.41624,0.09782
80.50761,0.09138
80.52792,0.09122
80.60914,0.09025
80.67005,0.08478
80.69036,0.08317
80.77157,0.08204
80.81218,0.08075
80.85279,0.07914
80.93401,0.07737
80.99492,0.0748
81.02538,0.08124
81.11675,0.07802
81.19797,0.07786
81.22843,0.07963
81.35025,0.07995
81.44162,0.08091
81.49239,0.07576
81.68528,0.0777
81.80711,0.07625
81.86802,0.07432
82.06091,0.07898
82.19289,0.07625
82.25381,0.07576
82.46701,0.07689
82.57868,0.0748
82.64975,0.07914
82.83249,0.07432
82.98477,0.07995
83.07614,0.07544
83.3198,0.07319
83.52284,0.07721
83.64467,0.07415
83.95939,0.07238
84.18274,0.07657
84.29442,0.07641
84.59898,0.07834
84.81218,0.07753
84.90355,0.08075
85.23858,0.08124
85.44162,0.0756
85.56345,0.08091
85.86802,0.08124
86.08122,0.08124
86.18274,0.07914
86.46701,0.08446
86.62944,0.08236
86.72081,0.08156
86.91371,0.07834
87.02538,0.08043
87.07614,0.08365
87.20812,0.08124
87.29949,0.08285
87.35025,0.07931
87.52284,0.08333
87.67513,0.08607
87.74619,0.07979
87.96954,0.07995
88.11168,0.07898
88.17259,0.07625
88.30457,0.0785
88.37563,0.08446
88.41624,0.08269
88.55838,0.08333
88.63959,0.08478
88.69036,0.07625
88.83249,0.08236
88.92386,0.08269
88.97462,0.08413
89.1066,0.08446
89.18782,0.08333
89.22843,0.07367
89.36041,0.0814
89.44162,0.08285
89.52284,0.08059
89.79695,0.08204
90.04061,0.08381
